(time) (Energy) (Kinetic Energy) (Potential Energy) (Pressure) (Temperature) 
0 10238.7 10238.7 0 1.8662e-140 3.33292 0 
0.005 10196.4 10196.4 0 1.8662e-140 3.31914 0.000249969 
0.01 10183 10183 0 1.8662e-140 3.31478 0.000992635 
0.015 10214.9 10214.9 0 1.8662e-140 3.32516 0.0022115 
0.02 10269.6 10269.6 0 1.8662e-140 3.34298 0.00388536 
0.025 10313.9 10313.9 0 1.8662e-140 3.35738 0.00598918 
0.03 10339.2 10339.2 0 1.8662e-140 3.36562 0.0084919 
0.035 10347.5 10347.5 0 1.8662e-140 3.36834 0.0113563 
0.04 10346.1 10346.1 0 1.8662e-140 3.36787 0.0145413 
0.045 10344.9 10344.9 0 1.8662e-140 3.36749 0.0180034 
0.05 10338.5 10338.5 0 1.8662e-140 3.36539 0.0217004 
0.055 10315.1 10315.1 0 1.8662e-140 3.35777 0.0255918 
0.06 10282.7 10282.7 0 1.8662e-140 3.34723 0.0296372 
0.065 10267.7 10267.7 0 1.8662e-140 3.34236 0.0337957 
0.07 10280.7 10280.7 0 1.8662e-140 3.34658 0.0380306 
0.075 10316.9 10316.9 0 1.8662e-140 3.35838 0.0423142 
0.08 10375.2 10375.2 0 1.8662e-140 3.37736 0.0466268 
0.085 10424.6 10424.6 0 1.8662e-140 3.39344 0.050957 
0.09 10429.7 10429.7 0 1.8662e-140 3.39508 0.0552976 
0.095 10393.2 10393.2 0 1.8662e-140 3.38319 0.0596379 
0.1 10342.9 10342.9 0 1.8662e-140 3.36683 0.0639605 
0.105 10292.6 10292.6 0 1.8662e-140 3.35047 0.0682469 
0.11 10233.3 10233.3 0 1.8662e-140 3.33114 0.0724838 
0.115 10154.8 10154.8 0 1.8662e-140 3.3056 0.0766625 
0.12 10057.4 10057.4 0 1.8662e-140 3.2739 0.0807753 
0.125 9959.44 9959.44 0 1.8662e-140 3.242 0.0848118 
0.13 9897.68 9897.68 0 1.8662e-140 3.2219 0.0887593 
0.135 9889.94 9889.94 0 1.8662e-140 3.21938 0.0926086 
0.14 9910.03 9910.03 0 1.8662e-140 3.22592 0.0963619 
0.145 9921.67 9921.67 0 1.8662e-140 3.22971 0.10003 
0.15 9912.04 9912.04 0 1.8662e-140 3.22658 0.103624 
0.155 9886.06 9886.06 0 1.8662e-140 3.21812 0.10715 
0.16 9851.36 9851.36 0 1.8662e-140 3.20682 0.110609 
0.165 9812.03 9812.03 0 1.8662e-140 3.19402 0.114004 
0.17 9775.39 9775.39 0 1.8662e-140 3.18209 0.117336 
0.175 9752.8 9752.8 0 1.8662e-140 3.17474 0.120607 
0.18 9747.25 9747.25 0 1.8662e-140 3.17293 0.123823 
0.185 9755.77 9755.77 0 1.8662e-140 3.17571 0.126991 
0.19 9775.76 9775.76 0 1.8662e-140 3.18221 0.130125 
0.195 9804.23 9804.23 0 1.8662e-140 3.19148 0.133239 
0.2 9840.14 9840.14 0 1.8662e-140 3.20317 0.13634 
0.205 9880.85 9880.85 0 1.8662e-140 3.21642 0.139438 
0.21 9916.88 9916.88 0 1.8662e-140 3.22815 0.142538 
0.215 9932.35 9932.35 0 1.8662e-140 3.23319 0.145648 
0.22 9917.61 9917.61 0 1.8662e-140 3.22839 0.148774 
0.225 9871.53 9871.53 0 1.8662e-140 3.21339 0.151919 
0.23 9803.64 9803.64 0 1.8662e-140 3.19129 0.15508 
0.235 9734.03 9734.03 0 1.8662e-140 3.16863 0.158252 
0.24 9678.56 9678.56 0 1.8662e-140 3.15057 0.16143 
0.245 9640.62 9640.62 0 1.8662e-140 3.13822 0.16461 
0.25 9619.99 9619.99 0 1.8662e-140 3.13151 0.167794 
0.255 9620.71 9620.71 0 1.8662e-140 3.13174 0.170984 
0.26 9646.95 9646.95 0 1.8662e-140 3.14028 0.174178 
0.265 9691.37 9691.37 0 1.8662e-140 3.15474 0.177377 
0.27 9734.29 9734.29 0 1.8662e-140 3.16871 0.180579 
0.275 9761.21 9761.21 0 1.8662e-140 3.17748 0.183779 
0.28 9772.28 9772.28 0 1.8662e-140 3.18108 0.186976 
0.285 9778.75 9778.75 0 1.8662e-140 3.18319 0.190165 
0.29 9793.01 9793.01 0 1.8662e-140 3.18783 0.193347 
0.295 9813.57 9813.57 0 1.8662e-140 3.19452 0.196526 
0.3 9828.49 9828.49 0 1.8662e-140 3.19938 0.199709 
0.305 9831.99 9831.99 0 1.8662e-140 3.20052 0.202907 
0.31 9830.67 9830.67 0 1.8662e-140 3.20009 0.206126 
0.315 9828.14 9828.14 0 1.8662e-140 3.19927 0.209369 
0.32 9813.6 9813.6 0 1.8662e-140 3.19453 0.212639 
0.325 9775.47 9775.47 0 1.8662e-140 3.18212 0.215932 
0.33 9724.83 9724.83 0 1.8662e-140 3.16563 0.219241 
0.335 9688.28 9688.28 0 1.8662e-140 3.15374 0.222554 
0.34 9678.14 9678.14 0 1.8662e-140 3.15044 0.225857 
0.345 9679.02 9679.02 0 1.8662e-140 3.15072 0.229143 
0.35 9681.29 9681.29 0 1.8662e-140 3.15146 0.232408 
0.355 9696.97 9696.97 0 1.8662e-140 3.15657 0.235652 
0.36 9735.41 9735.41 0 1.8662e-140 3.16908 0.238874 
0.365 9777.98 9777.98 0 1.8662e-140 3.18294 0.242079 
0.37 9791.45 9791.45 0 1.8662e-140 3.18732 0.245276 
0.375 9757.91 9757.91 0 1.8662e-140 3.1764 0.248475 
0.38 9687.01 9687.01 0 1.8662e-140 3.15332 0.251677 
0.385 9603.89 9603.89 0 1.8662e-140 3.12626 0.254875 
0.39 9532.03 9532.03 0 1.8662e-140 3.10288 0.258061 
0.395 9494.9 9494.9 0 1.8662e-140 3.09079 0.261223 
0.4 9508.29 9508.29 0 1.8662e-140 3.09515 0.264354 
0.405 9552.64 9552.64 0 1.8662e-140 3.10958 0.26745 
0.41 9597.93 9597.93 0 1.8662e-140 3.12433 0.270514 
0.415 9631.38 9631.38 0 1.8662e-140 3.13521 0.273555 
0.42 9654.22 9654.22 0 1.8662e-140 3.14265 0.276583 
0.425 9674.69 9674.69 0 1.8662e-140 3.14931 0.279612 
0.43 9709.56 9709.56 0 1.8662e-140 3.16067 0.282649 
0.435 9762.42 9762.42 0 1.8662e-140 3.17787 0.285708 
0.44 9813.82 9813.82 0 1.8662e-140 3.1946 0.2888 
0.445 9841.8 9841.8 0 1.8662e-140 3.20371 0.291941 
0.45 9834.75 9834.75 0 1.8662e-140 3.20142 0.295145 
0.455 9802.55 9802.55 0 1.8662e-140 3.19094 0.298413 
0.46 9760.29 9760.29 0 1.8662e-140 3.17718 0.301744 
0.465 9716.96 9716.96 0 1.8662e-140 3.16307 0.305131 
0.47 9685 9685 0 1.8662e-140 3.15267 0.308571 
0.475 9669.79 9669.79 0 1.8662e-140 3.14772 0.312058 
0.48 9654.24 9654.24 0 1.8662e-140 3.14266 0.315592 
0.485 9618.8 9618.8 0 1.8662e-140 3.13112 0.319166 
0.49 9561.54 9561.54 0 1.8662e-140 3.11248 0.322774 
0.495 9505.97 9505.97 0 1.8662e-140 3.09439 0.326399 
0.5 9490.06 9490.06 0 1.8662e-140 3.08921 0.33002 
