(time) (Energy) (Kinetic Energy) (Potential Energy) (Pressure) (Temperature) 
0 -9705.71 7785.29 -17491 2.74871 2.53428 0 
0.005 -9701.12 7700.96 -17402.1 2.62272 2.50682 0.000189731 
0.01 -9732.78 7470.85 -17203.6 3.10496 2.43192 0.000714433 
0.015 -9688.69 7192.83 -16881.5 3.91097 2.34142 0.00152696 
0.02 -9604.14 6833.95 -16438.1 5.01135 2.22459 0.0025782 
0.025 -9529.89 6368.02 -15897.9 6.31833 2.07292 0.00378229 
0.03 -9397.35 5904.94 -15302.3 7.75793 1.92218 0.0050655 
0.035 -9180.74 5527.04 -14707.8 9.21127 1.79917 0.00636453 
0.04 -8931.81 5218.37 -14150.2 10.5827 1.69869 0.00763175 
0.045 -8575.11 5113.89 -13689 11.771 1.66468 0.00883245 
0.05 -8401.77 4928.27 -13330 12.6648 1.60425 0.00994748 
0.055 -8133.96 4943.68 -13077.6 13.3495 1.60927 0.010946 
0.06 -7902.73 5014.77 -12917.5 13.8126 1.63241 0.0118376 
0.065 -7714.87 5133.32 -12848.2 14.0549 1.671 0.0126006 
0.07 -7497.57 5324.94 -12822.5 14.2071 1.73338 0.013273 
0.075 -7328.86 5489.27 -12818.1 14.289 1.78687 0.0138733 
0.08 -7060.81 5742.31 -12803.1 14.4245 1.86924 0.0144375 
0.085 -6831.58 5956.47 -12788 14.5422 1.93895 0.0149581 
0.09 -6667.87 6097.73 -12765.6 14.6497 1.98494 0.0154214 
0.095 -6528.7 6188.69 -12717.4 14.8027 2.01455 0.0158808 
0.1 -6385.82 6265.34 -12651.2 14.9929 2.0395 0.0163156 
0.105 -6308.79 6253.56 -12562.4 15.2075 2.03567 0.0167571 
0.11 -6105.95 6350.35 -12456.3 15.506 2.06717 0.0172066 
0.115 -6037.59 6346.19 -12383.8 15.6862 2.06582 0.0176365 
0.12 -5924.99 6413.38 -12338.4 15.8264 2.08769 0.0180603 
0.125 -5812.14 6489.22 -12301.4 15.9493 2.11238 0.0184642 
0.13 -5555.12 6721.8 -12276.9 16.0979 2.18809 0.0188674 
0.135 -5352.56 6888.53 -12241.1 16.2532 2.24236 0.0192836 
0.14 -5256.85 6947.2 -12204 16.374 2.26146 0.0196816 
0.145 -5157.14 7023.83 -12181 16.4681 2.2864 0.0200698 
0.15 -5159.31 6996.42 -12155.7 16.5285 2.27748 0.0204481 
0.155 -5114.39 7003.52 -12117.9 16.6314 2.27979 0.0208025 
0.16 -5076.85 6980.72 -12057.6 16.7793 2.27237 0.0211519 
0.165 -4810.43 7177.1 -11987.5 17.0281 2.3363 0.0215241 
0.17 -4744.03 7184.69 -11928.7 17.1818 2.33877 0.0219079 
0.175 -4624.37 7273.03 -11897.4 17.2968 2.36752 0.0222788 
0.18 -4592.52 7262.57 -11855.1 17.4064 2.36412 0.0226747 
0.185 -4584.53 7218.08 -11802.6 17.5299 2.34964 0.0230882 
0.19 -4606.59 7107.98 -11714.6 17.7192 2.31379 0.023527 
0.195 -4536.03 7075.92 -11612 17.9695 2.30336 0.0239705 
0.2 -4448.13 7048.99 -11497.1 18.249 2.29459 0.0244082 
0.205 -4370.8 7038.22 -11409 18.4693 2.29109 0.024784 
0.21 -4252.15 7091.39 -11343.5 18.6613 2.30839 0.0251416 
0.215 -4198.14 7102.76 -11300.9 18.7794 2.3121 0.025465 
0.22 -4110.9 7157.61 -11268.5 18.8869 2.32995 0.0257899 
0.225 -3991.04 7283.92 -11275 18.9203 2.37107 0.026025 
0.23 -3971.68 7308.45 -11280.1 18.9189 2.37905 0.0262539 
0.235 -3834.04 7437.77 -11271.8 18.9853 2.42115 0.0264861 
0.24 -3783.02 7502.3 -11285.3 18.9722 2.44216 0.0266807 
0.245 -3698.01 7589.71 -11287.7 18.9969 2.47061 0.0268852 
0.25 -3638.24 7653.46 -11291.7 19.01 2.49136 0.0270639 
0.255 -3680.41 7587.02 -11267.4 19.0464 2.46973 0.0272613 
0.26 -3719.98 7514.08 -11234.1 19.102 2.44599 0.0274293 
0.265 -3766.45 7415.73 -11182.2 19.1989 2.41397 0.0276321 
0.27 -3798.69 7327.15 -11125.8 19.3082 2.38514 0.0278076 
0.275 -3652.8 7412 -11064.8 19.4872 2.41276 0.0279746 
0.28 -3693.93 7343.88 -11037.8 19.5289 2.39059 0.0281215 
0.285 -3664.47 7361.07 -11025.5 19.5684 2.39618 0.028274 
0.29 -3484.87 7560 -11044.9 19.597 2.46094 0.0284312 
0.295 -3607.1 7455.85 -11063 19.5181 2.42704 0.0285513 
0.3 -3571.14 7499.87 -11071 19.5126 2.44136 0.0286452 
0.305 -3526.05 7545.63 -11071.7 19.5277 2.45626 0.0287574 
0.31 -3461.45 7628.57 -11090 19.5061 2.48326 0.0288438 
0.315 -3336.23 7779.15 -11115.4 19.4981 2.53228 0.0289515 
0.32 -3265.47 7876.39 -11141.9 19.4704 2.56393 0.0290559 
0.325 -3214.88 7943.57 -11158.4 19.4552 2.5858 0.0291657 
0.33 -3170.22 7988.47 -11158.7 19.4727 2.60041 0.0293308 
0.335 -3215.43 7912.53 -11128 19.5223 2.57569 0.0294872 
0.34 -3283.85 7786.36 -11070.2 19.625 2.53462 0.0296693 
0.345 -3322.13 7682.46 -11004.6 19.7537 2.5008 0.0298533 
0.35 -3418.05 7530.64 -10948.7 19.8433 2.45138 0.0300472 
0.355 -3438.8 7475.65 -10914.5 19.9148 2.43348 0.0302016 
0.36 -3369.7 7547.81 -10917.5 19.9405 2.45697 0.0302899 
0.365 -3328.76 7604.77 -10933.5 19.9296 2.47551 0.0303413 
0.37 -3364.55 7577.93 -10942.5 19.906 2.46678 0.0304149 
0.375 -3264.83 7660.8 -10925.6 19.9798 2.49375 0.030493 
0.38 -3218.66 7672.92 -10891.6 20.0698 2.4977 0.0305864 
0.385 -3286.74 7549.02 -10835.8 20.1647 2.45736 0.0307051 
0.39 -3293.58 7509.04 -10802.6 20.2354 2.44435 0.0308116 
0.395 -3219.37 7584.78 -10804.1 20.2627 2.469 0.0308972 
0.4 -3209.42 7602.98 -10812.4 20.2524 2.47493 0.0309813 
0.405 -3263.93 7571.13 -10835.1 20.1905 2.46456 0.0310115 
0.41 -3310.62 7543.63 -10854.2 20.1365 2.45561 0.0310742 
0.415 -3277.6 7583.54 -10861.1 20.1383 2.4686 0.0311565 
0.42 -3283.94 7583.23 -10867.2 20.1272 2.4685 0.0312363 
0.425 -3292.65 7591.5 -10884.2 20.0915 2.47119 0.0313301 
0.43 -3390.24 7518.78 -10909 20.0076 2.44752 0.0314118 
0.435 -3320.28 7609.64 -10929.9 19.991 2.4771 0.0314825 
0.44 -3378.59 7554.25 -10932.8 19.9611 2.45907 0.0315504 
0.445 -3338.69 7564.25 -10902.9 20.0317 2.46232 0.031635 
0.45 -3392.84 7494.79 -10887.6 20.0395 2.43971 0.0316907 
0.455 -3336.07 7564.83 -10900.9 20.0245 2.46251 0.0317025 
0.46 -3264.72 7648.54 -10913.3 20.0162 2.48976 0.0317615 
0.465 -3271.84 7696.08 -10967.9 19.8931 2.50523 0.0318196 
0.47 -3248.24 7755.24 -11003.5 19.8238 2.52449 0.0319087 
0.475 -3266.15 7735.24 -11001.4 19.8197 2.51798 0.0319981 
0.48 -3268.35 7697.96 -10966.3 19.8878 2.50585 0.0321573 
0.485 -3303.31 7625.87 -10929.2 19.9454 2.48238 0.0322792 
0.49 -3330.07 7574.51 -10904.6 19.9847 2.46566 0.0323933 
0.495 -3278.92 7635.39 -10914.3 19.9803 2.48548 0.03248 
0.5 -3287.81 7622.19 -10910 19.985 2.48118 0.0325319 
0.505 -3365.53 7568.91 -10934.4 19.9061 2.46384 0.0325578 
0.51 -3340.78 7628.32 -10969.1 19.8427 2.48318 0.0325684 
0.515 -3349.2 7629.95 -10979.2 19.8211 2.48371 0.0326262 
0.52 -3403.04 7579.83 -10982.9 19.7992 2.46739 0.0326636 
0.525 -3466.17 7478.72 -10944.9 19.8617 2.43448 0.0327357 
0.53 -3289.58 7642.65 -10932.2 19.9542 2.48784 0.0327981 
0.535 -3285.06 7640.98 -10926 19.9699 2.4873 0.0328768 
0.54 -3398.88 7532.67 -10931.6 19.9183 2.45204 0.0329109 
0.545 -3447 7501.18 -10948.2 19.8647 2.44179 0.0329338 
0.55 -3446.85 7516.14 -10963 19.8314 2.44666 0.0329647 
0.555 -3443.97 7559.16 -11003.1 19.7484 2.46066 0.0329898 
0.56 -3510.06 7505.62 -11015.7 19.7009 2.44324 0.0330852 
0.565 -3540.22 7492.51 -11032.7 19.6538 2.43897 0.0331495 
0.57 -3397.94 7620.56 -11018.5 19.7349 2.48065 0.0332539 
0.575 -3425.67 7590.2 -11015.9 19.7303 2.47077 0.0333802 
0.58 -3454.19 7536.6 -10990.8 19.772 2.45332 0.0335178 
0.585 -3588.31 7387.27 -10975.6 19.7579 2.40471 0.0336568 
0.59 -3628.66 7358.8 -10987.5 19.7193 2.39544 0.033768 
0.595 -3564.44 7435.32 -10999.8 19.7154 2.42035 0.033889 
0.6 -3588.3 7422.91 -11011.2 19.68 2.41631 0.0340048 
0.605 -3441.54 7556.04 -10997.6 19.7575 2.45965 0.0341143 
0.61 -3405.83 7582.06 -10987.9 19.7848 2.46812 0.0341828 
0.615 -3472.56 7484.14 -10956.7 19.8243 2.43624 0.0342315 
0.62 -3526.86 7428.36 -10955.2 19.8054 2.41809 0.0342451 
0.625 -3457.8 7471.98 -10929.8 19.88 2.43228 0.0342887 
0.63 -3495.25 7433.99 -10929.2 19.865 2.41992 0.0342979 
0.635 -3525.09 7410.51 -10935.6 19.8385 2.41227 0.0342632 
0.64 -3608.85 7352.75 -10961.6 19.754 2.39347 0.0342502 
0.645 -3495.18 7501.21 -10996.4 19.7234 2.4418 0.034252 
0.65 -3461.85 7556.96 -11018.8 19.6915 2.45995 0.0342904 
0.655 -3335.35 7695.37 -11030.7 19.7137 2.505 0.034331 
0.66 -3369.02 7645.35 -11014.4 19.7409 2.48872 0.0343687 
0.665 -3376.68 7623.42 -11000.1 19.7723 2.48158 0.0343774 
0.67 -3331.49 7637.52 -10969 19.8559 2.48617 0.0343804 
0.675 -3325.51 7620.32 -10945.8 19.907 2.48057 0.0343617 
0.68 -3320.74 7610.66 -10931.4 19.94 2.47743 0.034336 
0.685 -3393.26 7550.84 -10944.1 19.8904 2.45795 0.0343389 
0.69 -3436.8 7529.66 -10966.5 19.8254 2.45106 0.0342846 
0.695 -3498.7 7495.74 -10994.4 19.7392 2.44002 0.0342605 
0.7 -3442.66 7597 -11039.7 19.6582 2.47298 0.0342536 
0.705 -3404.76 7685.57 -11090.3 19.5568 2.50181 0.0342362 
0.71 -3410.19 7707.23 -11117.4 19.4918 2.50886 0.0342172 
0.715 -3381.81 7740.62 -11122.4 19.4805 2.51973 0.0341932 
0.72 -3492.31 7608.93 -11101.2 19.4814 2.47686 0.0342525 
0.725 -3493.77 7572.88 -11066.7 19.5521 2.46513 0.0343518 
0.73 -3468.58 7563.53 -11032.1 19.6333 2.46209 0.03449 
0.735 -3414.58 7577.35 -10991.9 19.7354 2.46659 0.034642 
0.74 -3420.45 7544.75 -10965.2 19.7855 2.45597 0.0347681 
0.745 -3521.89 7413.4 -10935.3 19.8092 2.41322 0.0349303 
0.75 -3523.54 7391.49 -10915 19.846 2.40608 0.0350811 
0.755 -3572.92 7323.87 -10896.8 19.8684 2.38407 0.0352547 
0.76 -3495.06 7418.9 -10914 19.8619 2.41501 0.0353452 
0.765 -3438.58 7513.39 -10952 19.8059 2.44577 0.0354354 
0.77 -3402.36 7574.54 -10976.9 19.77 2.46567 0.0354856 
0.775 -3414.98 7549.64 -10964.6 19.7913 2.45757 0.0355313 
0.78 -3340.45 7584.57 -10925 19.898 2.46893 0.0355662 
0.785 -3423.04 7461.51 -10884.5 19.9518 2.42888 0.0356072 
0.79 -3433.54 7413.11 -10846.7 20.0298 2.41312 0.0356858 
0.795 -3416.63 7434.29 -10850.9 20.033 2.42002 0.0357282 
0.8 -3407.44 7465.99 -10873.4 19.9954 2.43034 0.035772 
0.805 -3391.54 7508.22 -10899.8 19.9534 2.44408 0.035802 
0.81 -3299.2 7611.83 -10911 19.9672 2.47781 0.0358456 
0.815 -3131.3 7796.7 -10928 19.996 2.53799 0.0359006 
0.82 -3070.39 7866.15 -10936.5 20.0073 2.5606 0.0360227 
0.825 -3022.16 7904.13 -10926.3 20.0497 2.57296 0.0361292 
0.83 -3027.05 7903.08 -10930.1 20.0411 2.57262 0.0362067 
0.835 -3060.21 7876.76 -10937 20.0168 2.56405 0.0362874 
0.84 -3066.72 7881.52 -10948.2 19.9918 2.5656 0.03639 
0.845 -2948.36 8006.78 -10955.1 20.0211 2.60638 0.0365499 
0.85 -3066.14 7888.59 -10954.7 19.9829 2.5679 0.036729 
0.855 -3097.02 7843.03 -10940 20.0067 2.55307 0.0369079 
0.86 -3092.06 7811.83 -10903.9 20.0885 2.54291 0.0370966 
0.865 -3070.03 7790.91 -10860.9 20.1897 2.5361 0.0373038 
0.87 -3201.99 7637.53 -10839.5 20.185 2.48617 0.0374444 
0.875 -3234.88 7594.84 -10829.7 20.1912 2.47228 0.0375656 
0.88 -3078.29 7765.57 -10843.9 20.2117 2.52785 0.0376795 
0.885 -3113.94 7744.06 -10858 20.1651 2.52085 0.0377806 
0.89 -3136.11 7728.68 -10864.8 20.1388 2.51585 0.0378669 
0.895 -3101.97 7754.83 -10856.8 20.1593 2.52436 0.0379986 
0.9 -3146.89 7677.2 -10824.1 20.2088 2.49909 0.0381201 
0.905 -3169.57 7635.47 -10805 20.2416 2.48551 0.0382597 
0.91 -3179.49 7643.76 -10823.2 20.2064 2.4882 0.038406 
0.915 -3129.19 7701.9 -10831.1 20.2166 2.50713 0.0385438 
0.92 -3097.03 7715.27 -10812.3 20.2826 2.51148 0.038707 
0.925 -3117.9 7646.79 -10764.7 20.3849 2.48919 0.0388528 
0.93 -3097.67 7606.59 -10704.3 20.5276 2.4761 0.0390289 
0.935 -3173.69 7501.07 -10674.8 20.5764 2.44175 0.0391718 
0.94 -3251.25 7418.53 -10669.8 20.5708 2.41489 0.0392536 
0.945 -3225.23 7443.25 -10668.5 20.5903 2.42293 0.0393075 
0.95 -3188.76 7484.97 -10673.7 20.5931 2.43651 0.0392808 
0.955 -3211.48 7459.44 -10670.9 20.5909 2.4282 0.0392667 
0.96 -3101.37 7584.66 -10686 20.5974 2.46896 0.0392736 
0.965 -3147.26 7560.43 -10707.7 20.538 2.46108 0.0392923 
0.97 -3029.39 7699.93 -10729.3 20.5387 2.50649 0.0392849 
0.975 -3028.76 7712.3 -10741.1 20.5184 2.51051 0.0392549 
0.98 -3087.08 7659.64 -10746.7 20.4872 2.49337 0.0392453 
0.985 -2989.23 7769.39 -10758.6 20.4956 2.5291 0.0392058 
0.99 -2863.76 7868.48 -10732.2 20.594 2.56135 0.0392113 
0.995 -2889.13 7779.31 -10668.4 20.7183 2.53233 0.0392325 
1 -2956.02 7657.06 -10613.1 20.8116 2.49253 0.0392471 
1.005 -2959.58 7619.84 -10579.4 20.8823 2.48042 0.0392125 
1.01 -2915.7 7658.18 -10573.9 20.9104 2.4929 0.0391588 
1.015 -2979.16 7597.54 -10576.7 20.8826 2.47316 0.0390723 
1.02 -2972.07 7640.06 -10612.1 20.809 2.487 0.0389559 
1.025 -3005.45 7633.11 -10638.6 20.7408 2.48474 0.0388563 
1.03 -3000.51 7666.76 -10667.3 20.6809 2.49569 0.0387785 
1.035 -2990.58 7680.84 -10671.4 20.6759 2.50027 0.0387419 
1.04 -3068.18 7586.66 -10654.8 20.6822 2.46961 0.0387077 
1.045 -3063.82 7599.58 -10663.4 20.6617 2.47382 0.0386712 
1.05 -3065.39 7635.58 -10701 20.5811 2.48554 0.0386554 
1.055 -3038.94 7697.66 -10736.6 20.5151 2.50575 0.0385921 
1.06 -3033.42 7722.77 -10756.2 20.4753 2.51392 0.0385457 
1.065 -3125.51 7641.13 -10766.6 20.4195 2.48735 0.0384934 
1.07 -3134.14 7641.82 -10776 20.3945 2.48757 0.0384539 
1.075 -3211.13 7552.52 -10763.7 20.3916 2.4585 0.0384284 
1.08 -3231.33 7511.33 -10742.7 20.4268 2.44509 0.0384407 
1.085 -3201.4 7516 -10717.4 20.4908 2.44661 0.0384825 
1.09 -3245.32 7428.37 -10673.7 20.5693 2.41809 0.0385752 
1.095 -3136.07 7507.87 -10643.9 20.675 2.44397 0.0386904 
1.1 -3080.42 7543.47 -10623.9 20.7419 2.45556 0.0388066 
1.105 -3051.46 7550.17 -10601.6 20.8038 2.45774 0.0389641 
1.11 -3034.74 7552.94 -10587.7 20.8399 2.45864 0.0391239 
1.115 -3146 7437.75 -10583.8 20.808 2.42114 0.0392342 
1.12 -3249.92 7360.7 -10610.6 20.7097 2.39606 0.0392513 
1.125 -3106.66 7566.66 -10673.3 20.6254 2.4631 0.0392424 
1.13 -3069.83 7651.49 -10721.3 20.5326 2.49072 0.0392112 
1.135 -3040.82 7694.48 -10735.3 20.5098 2.50471 0.0391897 
1.14 -3032.8 7664.32 -10697.1 20.591 2.4949 0.0392174 
1.145 -3035.55 7616.67 -10652.2 20.6817 2.47938 0.0392586 
1.15 -3015.6 7586.79 -10602.4 20.7943 2.46966 0.0393047 
1.155 -3029.79 7535.16 -10564.9 20.8701 2.45285 0.0393261 
1.16 -2964.59 7581.72 -10546.3 20.9355 2.46801 0.0393584 
1.165 -2863.49 7675.3 -10538.8 20.992 2.49847 0.0393698 
1.17 -2887.18 7654.2 -10541.4 20.9891 2.4916 0.0393881 
1.175 -2903.71 7623.66 -10527.4 21.0253 2.48166 0.0394222 
1.18 -2909.28 7594.69 -10504 21.0849 2.47223 0.03946 
1.185 -2903.83 7586.54 -10490.4 21.1237 2.46958 0.0395486 
1.19 -2753.5 7746.09 -10499.6 21.164 2.52151 0.0396171 
1.195 -2824.07 7696.78 -10520.9 21.096 2.50546 0.0396635 
1.2 -2795.68 7749.52 -10545.2 21.0523 2.52263 0.0397344 
1.205 -2771.87 7805.63 -10577.5 20.9904 2.5409 0.0398306 
1.21 -2760.87 7819.83 -10580.7 20.9873 2.54552 0.0399634 
1.215 -2795.81 7787.24 -10583 20.9668 2.53491 0.0400366 
1.22 -2888.1 7691.29 -10579.4 20.9401 2.50368 0.0401313 
1.225 -2858.35 7717.46 -10575.8 20.9545 2.51219 0.040207 
1.23 -2856.96 7701.89 -10558.9 20.989 2.50713 0.0402766 
1.235 -2864.62 7650.18 -10514.8 21.0789 2.49029 0.040404 
1.24 -2894.83 7561.57 -10456.4 21.1941 2.46145 0.0405769 
1.245 -2910.36 7489.86 -10400.2 21.3084 2.4381 0.040751 
1.25 -2887.39 7466.38 -10353.8 21.4178 2.43046 0.0409088 
1.255 -2820.02 7516.04 -10336.1 21.4834 2.44663 0.0410312 
1.26 -2880.97 7446.25 -10327.2 21.4854 2.42391 0.0411419 
1.265 -2806.22 7523.3 -10329.5 21.5085 2.44899 0.0412045 
1.27 -2804.6 7523.21 -10327.8 21.511 2.44896 0.0412403 
1.275 -2674.78 7649.62 -10324.4 21.5574 2.49011 0.0412465 
1.28 -2684.44 7633.65 -10318.1 21.558 2.48491 0.0412534 
1.285 -2698.23 7642.78 -10341 21.4918 2.48788 0.0412102 
1.29 -2728.34 7637.82 -10366.2 21.4151 2.48627 0.0411426 
1.295 -2670.71 7743.38 -10414.1 21.3253 2.52063 0.0410847 
1.3 -2596.28 7864.11 -10460.4 21.2495 2.55993 0.0410299 
1.305 -2561.48 7948.91 -10510.4 21.1526 2.58753 0.0409581 
1.31 -2605.49 7937.59 -10543.1 21.0681 2.58385 0.0409306 
1.315 -2533.41 8031.25 -10564.7 21.0472 2.61434 0.040937 
1.32 -2530.16 8047.46 -10577.6 21.0196 2.61962 0.0409432 
1.325 -2493.01 8113.74 -10606.7 20.971 2.64119 0.0409307 
1.33 -2544.86 8069.81 -10614.7 20.9368 2.62689 0.0409401 
1.335 -2560.07 8035.62 -10595.7 20.9726 2.61576 0.0409464 
1.34 -2462.07 8103.6 -10565.7 21.0703 2.63789 0.0409419 
1.345 -2481.64 8050.28 -10531.9 21.138 2.62053 0.0410282 
1.35 -2533.17 7982.95 -10516.1 21.1567 2.59862 0.0411305 
1.355 -2635.69 7870.35 -10506 21.1448 2.56196 0.0411882 
1.36 -2589.59 7914.8 -10504.4 21.1691 2.57643 0.0412949 
1.365 -2644.71 7850.95 -10495.7 21.1768 2.55565 0.0414289 
1.37 -2636.24 7854.3 -10490.5 21.1956 2.55674 0.0415042 
1.375 -2652.2 7832.22 -10484.4 21.2045 2.54955 0.0415866 
1.38 -2560.93 7932.98 -10493.9 21.2173 2.58235 0.0416122 
1.385 -2599.36 7871.36 -10470.7 21.2535 2.56229 0.0416771 
1.39 -2643.35 7799.25 -10442.6 21.2948 2.53882 0.0417554 
1.395 -2648.97 7761.4 -10410.4 21.3581 2.5265 0.0418174 
1.4 -2570.49 7809.69 -10380.2 21.4473 2.54222 0.0419036 
1.405 -2564.46 7790.08 -10354.5 21.5038 2.53583 0.0419829 
1.41 -2651.46 7678.66 -10330.1 21.5272 2.49957 0.0420768 
1.415 -2567.21 7755.89 -10323.1 21.5739 2.5247 0.0421309 
1.42 -2606.25 7706.39 -10312.6 21.5817 2.50859 0.042187 
1.425 -2643 7681.8 -10324.8 21.5471 2.50059 0.0422727 
1.43 -2593.25 7789.36 -10382.6 21.4479 2.5356 0.0423336 
1.435 -2557.46 7895.4 -10452.9 21.3143 2.57012 0.0423798 
1.44 -2639.88 7842.94 -10482.8 21.2199 2.55304 0.0424334 
1.445 -2550.5 7944.32 -10494.8 21.2242 2.58604 0.0424966 
1.45 -2586.24 7895.51 -10481.8 21.2395 2.57015 0.0425493 
1.455 -2557.78 7922.51 -10480.3 21.2536 2.57894 0.0426093 
1.46 -2535.33 7943.73 -10479.1 21.2663 2.58585 0.0426372 
1.465 -2475.45 7987.07 -10462.5 21.3216 2.59996 0.0426977 
1.47 -2461.14 7963.28 -10424.4 21.4075 2.59221 0.042795 
1.475 -2455.47 7891.41 -10346.9 21.5722 2.56882 0.0429226 
1.48 -2515.09 7759.78 -10274.9 21.7032 2.52597 0.0430911 
1.485 -2456.27 7772.7 -10229 21.8237 2.53018 0.0432322 
1.49 -2481.71 7765.48 -10247.2 21.7806 2.52783 0.0433371 
1.495 -2376.32 7914.65 -10291 21.7291 2.57638 0.0434042 
1.5 -2465.53 7867.26 -10332.8 21.6068 2.56096 0.0434176 
1.505 -2530 7825.25 -10355.3 21.5372 2.54728 0.0434359 
1.51 -2601.83 7750.33 -10352.2 21.5206 2.52289 0.0434746 
1.515 -2620.33 7713.18 -10333.5 21.5573 2.5108 0.0435042 
1.52 -2542.65 7767.69 -10310.3 21.6389 2.52855 0.0435539 
1.525 -2491.78 7794.33 -10286.1 21.714 2.53722 0.0435871 
1.53 -2504.9 7768.29 -10273.2 21.7423 2.52874 0.043664 
1.535 -2479.13 7804.82 -10283.9 21.7305 2.54063 0.0436947 
1.54 -2456.7 7843.87 -10300.6 21.7046 2.55334 0.0437625 
1.545 -2450.66 7880.84 -10331.5 21.6369 2.56538 0.0438164 
1.55 -2415.9 7906.34 -10322.2 21.6624 2.57368 0.0439364 
1.555 -2443.78 7871.23 -10315 21.6607 2.56225 0.0440167 
1.56 -2452.07 7846.84 -10298.9 21.6874 2.55431 0.0441366 
1.565 -2476.29 7795.56 -10271.9 21.7369 2.53762 0.0442497 
1.57 -2413.05 7839.46 -10252.5 21.8023 2.55191 0.0443435 
1.575 -2357.32 7829.44 -10186.8 21.9603 2.54865 0.0444394 
1.58 -2373.53 7772.16 -10145.7 22.041 2.53 0.0444931 
1.585 -2421.42 7696.56 -10118 22.0857 2.50539 0.0445336 
1.59 -2445.23 7675.19 -10120.4 22.0777 2.49843 0.0446133 
1.595 -2348.75 7796.03 -10144.8 22.0683 2.53777 0.0446704 
1.6 -2304.14 7846.15 -10150.3 22.0759 2.55409 0.0447286 
1.605 -2261.54 7885.62 -10147.2 22.0948 2.56693 0.044748 
1.61 -2329.01 7825.3 -10154.3 22.0491 2.5473 0.0447404 
1.615 -2297.35 7858.77 -10156.1 22.0499 2.55819 0.04468 
1.62 -2277.74 7904.16 -10181.9 21.9911 2.57297 0.0446105 
1.625 -2316.7 7865.76 -10182.5 21.9701 2.56047 0.0445889 
1.63 -2312.25 7897.15 -10209.4 21.9134 2.57069 0.0444968 
1.635 -2398.78 7851.43 -10250.2 21.7976 2.5558 0.044396 
1.64 -2435.36 7877.33 -10312.7 21.6545 2.56424 0.0442874 
1.645 -2466.95 7900.18 -10367.1 21.5319 2.57167 0.0442083 
1.65 -2500.09 7917.7 -10417.8 21.4137 2.57738 0.0440959 
1.655 -2452.34 7985.35 -10437.7 21.3853 2.5994 0.043967 
1.66 -2538.86 7909.28 -10448.1 21.3316 2.57463 0.0438565 
1.665 -2617.38 7840.51 -10457.9 21.2826 2.55225 0.0437707 
1.67 -2597.83 7858.08 -10455.9 21.2928 2.55797 0.0437159 
1.675 -2671.03 7766.21 -10437.2 21.3071 2.52806 0.0437033 
1.68 -2627.07 7797.15 -10424.2 21.3464 2.53814 0.0437248 
1.685 -2657.04 7747.12 -10404.2 21.3733 2.52185 0.0437328 
1.69 -2523.51 7875.52 -10399 21.4258 2.56365 0.0437 
1.695 -2653.45 7732.94 -10386.4 21.4005 2.51723 0.0436618 
1.7 -2626.63 7770.18 -10396.8 21.3815 2.52936 0.0436004 
1.705 -2666.81 7731.66 -10398.5 21.361 2.51682 0.043554 
1.71 -2653.87 7746.23 -10400.1 21.3623 2.52156 0.0435148 
1.715 -2709.44 7683.12 -10392.6 21.3566 2.50102 0.0434451 
1.72 -2723.92 7677.88 -10401.8 21.3287 2.49931 0.0433795 
1.725 -2778.1 7621.89 -10400 21.3126 2.48108 0.0434378 
1.73 -2768.13 7635.1 -10403.2 21.3073 2.48538 0.043475 
1.735 -2824.03 7580.87 -10404.9 21.2829 2.46773 0.0435463 
1.74 -2867.21 7537.2 -10404.4 21.2665 2.45352 0.0435958 
1.745 -2903.98 7504.16 -10408.1 21.2445 2.44276 0.043618 
1.75 -2975.51 7446.99 -10422.5 21.1906 2.42415 0.0436253 
1.755 -2936.25 7507.58 -10443.8 21.1633 2.44387 0.0436398 
1.76 -2959.07 7538.75 -10497.8 21.046 2.45402 0.0435885 
1.765 -2870.47 7675.72 -10546.2 20.9771 2.49861 0.0434839 
1.77 -2806.82 7758.58 -10565.4 20.9558 2.52558 0.0433131 
1.775 -2851.38 7714.74 -10566.1 20.9344 2.51131 0.0431745 
1.78 -2841.87 7723 -10564.9 20.9345 2.514 0.0430888 
1.785 -2772.15 7787.61 -10559.8 20.9638 2.53503 0.043016 
1.79 -2911.68 7666.78 -10578.5 20.871 2.4957 0.0429207 
1.795 -2945.48 7656.31 -10601.8 20.812 2.49229 0.0428496 
1.8 -2884.1 7746.67 -10630.8 20.7797 2.5217 0.0427627 
1.805 -2908.86 7741.13 -10650 20.7363 2.5199 0.0426582 
1.81 -2931.21 7729.75 -10661 20.7069 2.51619 0.0425648 
1.815 -3049.45 7612.46 -10661.9 20.6597 2.47801 0.0424479 
1.82 -3064.44 7603.67 -10668.1 20.6325 2.47515 0.0423123 
1.825 -3075.63 7604.22 -10679.9 20.5988 2.47533 0.0421803 
1.83 -3064.55 7636.05 -10700.6 20.5572 2.48569 0.0420765 
1.835 -3018.46 7694.89 -10713.4 20.5487 2.50485 0.0420019 
1.84 -3085.22 7648.03 -10733.2 20.4876 2.48959 0.0419395 
1.845 -3155.28 7608.89 -10764.2 20.4006 2.47685 0.0418686 
1.85 -3128.8 7669.72 -10798.5 20.3438 2.49665 0.0418156 
1.855 -3194.3 7626.6 -10820.9 20.2781 2.48262 0.0417399 
1.86 -3084.19 7738.07 -10822.3 20.3209 2.5189 0.041734 
1.865 -3063.49 7730.83 -10794.3 20.3924 2.51655 0.0417679 
1.87 -2960.57 7788.75 -10749.3 20.526 2.5354 0.0417834 
1.875 -3034.9 7649.7 -10684.6 20.6383 2.49014 0.0418042 
1.88 -2949.94 7682.81 -10632.7 20.7792 2.50091 0.0418545 
1.885 -2914.96 7673.94 -10588.9 20.8878 2.49803 0.0419114 
1.89 -2897.73 7650.08 -10547.8 20.9858 2.49026 0.0420041 
1.895 -2857.35 7667.62 -10525 21.0508 2.49597 0.0421041 
1.9 -2899.66 7599.57 -10499.2 21.0893 2.47382 0.0422181 
1.905 -2920.19 7554.89 -10475.1 21.1321 2.45928 0.0423232 
1.91 -2743.82 7719.71 -10463.5 21.2162 2.51293 0.042391 
1.915 -2846.48 7631.71 -10478.2 21.1485 2.48428 0.0423467 
1.92 -2781.8 7703.73 -10485.5 21.1564 2.50772 0.0423181 
1.925 -2754.95 7703.87 -10458.8 21.2245 2.50777 0.0423115 
1.93 -2786.58 7634.19 -10420.8 21.2947 2.48509 0.0423378 
1.935 -2826.7 7553.45 -10380.2 21.3684 2.45881 0.0423593 
1.94 -2882.14 7477.28 -10359.4 21.3948 2.43401 0.0423414 
1.945 -2890.08 7492.93 -10383 21.3436 2.4391 0.0422662 
1.95 -2811.97 7630.25 -10442.2 21.2452 2.48381 0.0421658 
1.955 -2731.54 7776.53 -10508.1 21.1336 2.53142 0.0420998 
1.96 -2679.31 7863.89 -10543.2 21.0771 2.55986 0.0420455 
1.965 -2569.97 7983.21 -10553.2 21.0912 2.5987 0.042017 
1.97 -2539.85 7994.08 -10533.9 21.136 2.60224 0.0419537 
1.975 -2564.51 7927.56 -10492.1 21.2055 2.58059 0.0418348 
1.98 -2656.29 7775.76 -10432.1 21.2903 2.53117 0.0417445 
1.985 -2659.49 7746.01 -10405.5 21.3379 2.52149 0.0415999 
1.99 -2762.43 7654.19 -10416.6 21.2728 2.4916 0.0414578 
1.995 -2768.94 7688.55 -10457.5 21.1847 2.50278 0.0412894 
2 -2831.98 7663.55 -10495.5 21.0812 2.49464 0.0411502 
2.005 -2754.27 7772.57 -10526.8 21.0383 2.53013 0.041009 
2.01 -2748.19 7800.73 -10548.9 20.9916 2.5393 0.0409674 
2.015 -2716.52 7874.4 -10590.9 20.9142 2.56328 0.0408916 
2.02 -2601.45 8016.05 -10617.5 20.9022 2.60939 0.0408177 
2.025 -2557.61 8050.35 -10608 20.9435 2.62056 0.0407429 
2.03 -2615.11 7975.38 -10590.5 20.965 2.59615 0.0407138 
2.035 -2743.74 7815.85 -10559.6 20.9919 2.54422 0.0407605 
2.04 -2796.4 7743.78 -10540.2 21.0215 2.52076 0.04075 
2.045 -2834.25 7711.66 -10545.9 21.0007 2.5103 0.0407188 
2.05 -2866.9 7701.85 -10568.8 20.9439 2.50711 0.0406723 
2.055 -2952.82 7623.78 -10576.6 20.8959 2.4817 0.0406551 
2.06 -2903.23 7683.98 -10587.2 20.8845 2.50129 0.0405978 
2.065 -2864.5 7733.7 -10598.2 20.8672 2.51748 0.0404844 
2.07 -2764.9 7825.3 -10590.2 20.9135 2.5473 0.0403801 
2.075 -2824.33 7751.65 -10576 20.9203 2.52332 0.0402787 
2.08 -2831.1 7715.96 -10547.1 20.9787 2.51171 0.0401868 
2.085 -2832.71 7705.49 -10538.2 20.9944 2.5083 0.0400648 
2.09 -2799.6 7718.56 -10518.2 21.0498 2.51255 0.03994 
2.095 -2701.77 7820.76 -10522.5 21.0739 2.54582 0.0397906 
2.1 -2721.15 7817.15 -10538.3 21.0354 2.54464 0.0396459 
2.105 -2800.52 7785.28 -10585.8 20.9057 2.53427 0.0394655 
2.11 -2878.81 7776.87 -10655.7 20.7275 2.53153 0.0393048 
2.115 -2832.56 7919.91 -10752.5 20.5337 2.5781 0.0391662 
2.12 -2829.14 7960.92 -10790.1 20.4469 2.59145 0.0390592 
2.125 -2834.64 7976.08 -10810.7 20.3905 2.59638 0.0390171 
2.13 -2787.12 8009.96 -10797.1 20.4274 2.60741 0.0390564 
2.135 -2673.82 8083.65 -10757.5 20.5434 2.6314 0.0391201 
2.14 -2710.99 8003.13 -10714.1 20.6147 2.60519 0.0392078 
2.145 -2750 7926.29 -10676.3 20.6799 2.58017 0.0393195 
2.15 -2749.94 7905.13 -10655.1 20.7242 2.57328 0.0394171 
2.155 -2826.16 7820.44 -10646.6 20.7184 2.54572 0.0394879 
2.16 -2893.07 7740.05 -10633.1 20.7256 2.51955 0.0395483 
2.165 -2892.68 7727.98 -10620.7 20.7513 2.51562 0.0396231 
2.17 -2843.85 7762.84 -10606.7 20.7933 2.52697 0.0396598 
2.175 -2895.13 7693.18 -10588.3 20.8109 2.50429 0.0397269 
2.18 -2887.13 7701.2 -10588.3 20.8114 2.5069 0.03976 
2.185 -2805.4 7787.86 -10593.3 20.832 2.53511 0.0397915 
2.19 -2866.75 7732.08 -10598.8 20.8054 2.51695 0.0397983 
2.195 -2932.53 7663.26 -10595.8 20.7957 2.49455 0.0398494 
2.2 -2934.9 7680.04 -10614.9 20.7637 2.50001 0.0398695 
2.205 -2924.35 7705.15 -10629.5 20.7433 2.50819 0.0398778 
2.21 -2934.62 7700.34 -10635 20.7353 2.50662 0.0399078 
2.215 -2956.87 7681.55 -10638.4 20.7277 2.5005 0.039924 
2.22 -2901.9 7755.1 -10657 20.714 2.52445 0.0399413 
2.225 -2977.85 7697.4 -10675.3 20.6563 2.50567 0.0399772 
2.23 -2997.39 7684.11 -10681.5 20.6451 2.50134 0.0400119 
2.235 -2969.42 7698.66 -10668.1 20.6884 2.50607 0.0400248 
2.24 -3025.73 7624.92 -10650.7 20.7072 2.48207 0.0399771 
2.245 -3079.65 7550.8 -10630.5 20.732 2.45794 0.0399344 
2.25 -3014.55 7620.71 -10635.3 20.7444 2.4807 0.0399104 
2.255 -3095.94 7571.75 -10667.7 20.648 2.46476 0.0398801 
2.26 -2999.86 7678.99 -10678.8 20.6575 2.49967 0.0398995 
2.265 -3082.04 7585.95 -10668 20.6456 2.46939 0.039932 
2.27 -3075.05 7579.32 -10654.4 20.6699 2.46723 0.0399494 
2.275 -2959.74 7679.32 -10639.1 20.7363 2.49978 0.039985 
2.28 -2811.1 7815.35 -10626.4 20.8129 2.54406 0.040038 
2.285 -2875.84 7725.31 -10601.1 20.8384 2.51475 0.0400948 
2.29 -2883.69 7694.4 -10578.1 20.8771 2.50469 0.0401401 
2.295 -2813.52 7736.28 -10549.8 20.9545 2.51832 0.0401873 
2.3 -2768.13 7794.55 -10562.7 20.9424 2.53729 0.0402518 
2.305 -2762.71 7828.27 -10591 20.8909 2.54827 0.0403007 
2.31 -2847.46 7795.21 -10642.7 20.7555 2.5375 0.0403325 
2.315 -2828.1 7846.71 -10674.8 20.6973 2.55427 0.0404025 
2.32 -2916.83 7763.26 -10680.1 20.658 2.5271 0.0404417 
2.325 -2964.9 7678.56 -10643.5 20.7218 2.49953 0.0404662 
2.33 -3039.33 7562.18 -10601.5 20.7865 2.46165 0.0405663 
2.335 -3010.03 7570.05 -10580.1 20.8468 2.46421 0.0406948 
2.34 -2983.06 7587.72 -10570.8 20.8836 2.46996 0.0407871 
2.345 -2969.09 7600.08 -10569.2 20.9 2.47399 0.0408657 
2.35 -2948.85 7587.72 -10536.6 20.9865 2.46996 0.0409647 
2.355 -2879.64 7606.28 -10485.9 21.1213 2.476 0.0410774 
2.36 -2726.94 7703.57 -10430.5 21.2974 2.50767 0.0412094 
2.365 -2704.95 7684.39 -10389.3 21.3976 2.50143 0.0413429 
2.37 -2809.4 7568.76 -10378.2 21.387 2.46379 0.0414734 
2.375 -2884.51 7498.39 -10382.9 21.352 2.44088 0.0415861 
2.38 -2889.09 7521.44 -10410.5 21.289 2.44838 0.0416674 
2.385 -2843.29 7561.41 -10404.7 21.3138 2.4614 0.0417663 
2.39 -2923.73 7497.57 -10421.3 21.2457 2.44062 0.0418306 
2.395 -2926.16 7524.89 -10451 21.1748 2.44951 0.0418972 
2.4 -2899.72 7571.36 -10471.1 21.1337 2.46463 0.0419388 
2.405 -2866.73 7649.33 -10516.1 21.045 2.49002 0.0419579 
2.41 -2820.99 7735.15 -10556.1 20.9742 2.51795 0.0419572 
2.415 -2783.6 7799.32 -10582.9 20.93 2.53884 0.041953 
2.42 -2723.3 7848.91 -10572.2 20.9741 2.55498 0.0420078 
2.425 -2757.24 7799.54 -10556.8 20.9943 2.53891 0.0420829 
2.43 -2792.01 7768.13 -10560.1 20.9748 2.52869 0.0421424 
2.435 -2837.55 7721.11 -10558.7 20.9614 2.51338 0.0421456 
2.44 -2738.33 7833.1 -10571.4 20.967 2.54984 0.0420806 
2.445 -2707.74 7900.66 -10608.4 20.8981 2.57183 0.0419852 
2.45 -2687.51 7922.47 -10610 20.9006 2.57893 0.0419419 
2.455 -2696.85 7871.86 -10568.7 20.9815 2.56245 0.041954 
2.46 -2655.07 7872.02 -10527.1 21.0822 2.56251 0.0420067 
2.465 -2552.29 7947.35 -10499.6 21.1782 2.58703 0.0420711 
2.47 -2544.93 7936.16 -10481.1 21.2239 2.58339 0.0421795 
2.475 -2565.54 7919.76 -10485.3 21.2149 2.57805 0.042291 
2.48 -2618.27 7856.96 -10475.2 21.2231 2.5576 0.0424423 
2.485 -2703.79 7734.58 -10438.4 21.2754 2.51777 0.0426249 
2.49 -2708.24 7676.13 -10384.4 21.3936 2.49874 0.0427611 
2.495 -2761.26 7577.16 -10338.4 21.4746 2.46652 0.0428952 
2.5 -2749.6 7561.38 -10311 21.54 2.46139 0.0429805 
2.505 -2775.97 7541.96 -10317.9 21.5202 2.45507 0.0430262 
2.51 -2637.29 7700.06 -10337.4 21.5333 2.50653 0.0430563 
2.515 -2706.82 7666.23 -10373.1 21.4364 2.49552 0.0430474 
2.52 -2612.87 7814.27 -10427.1 21.3538 2.54371 0.0429632 
2.525 -2547.78 7924.48 -10472.3 21.2735 2.57958 0.0428722 
2.53 -2541.68 7958.8 -10500.5 21.2057 2.59076 0.0427825 
2.535 -2532.64 7964.04 -10496.7 21.2051 2.59246 0.0427239 
2.54 -2557.52 7947.5 -10505 21.1712 2.58708 0.0426544 
2.545 -2524.64 7973.93 -10498.6 21.1963 2.59568 0.0426558 
2.55 -2597.94 7903.5 -10501.4 21.1628 2.57276 0.0426346 
2.555 -2678.22 7857.72 -10535.9 21.0634 2.55785 0.0426643 
2.56 -2736.34 7820.37 -10556.7 21.0018 2.54569 0.0426452 
2.565 -2770.44 7813.03 -10583.5 20.9352 2.5433 0.0425756 
2.57 -2884.77 7723.03 -10607.8 20.8469 2.51401 0.0425436 
2.575 -2817.4 7811.88 -10629.3 20.8261 2.54293 0.0424896 
2.58 -2762.35 7856.32 -10618.7 20.8658 2.5574 0.0424819 
2.585 -2860.75 7726.58 -10587.3 20.8921 2.51516 0.0424649 
2.59 -2864.17 7711.4 -10575.6 20.9153 2.51022 0.0424332 
2.595 -2773.96 7800.78 -10574.7 20.9534 2.53932 0.0424413 
2.6 -2733.7 7809.26 -10543 21.038 2.54208 0.0424863 
2.605 -2783.42 7695.69 -10479.1 21.1603 2.50511 0.0425405 
2.61 -2824.41 7624.7 -10449.1 21.2166 2.482 0.04257 
2.615 -2839.78 7615.17 -10455 21.2071 2.4789 0.0425889 
2.62 -2767.76 7709.15 -10476.9 21.1927 2.50949 0.0426206 
2.625 -2740.16 7774.72 -10514.9 21.1261 2.53083 0.0426307 
2.63 -2725.67 7816.99 -10542.7 21.0742 2.54459 0.0426338 
2.635 -2677.94 7872.93 -10550.9 21.0703 2.5628 0.0426589 
2.64 -2799.23 7764.05 -10563.3 20.992 2.52736 0.0426968 
2.645 -2926.97 7654.73 -10581.7 20.8962 2.49177 0.0427351 
2.65 -2982.1 7629.42 -10611.5 20.8027 2.48353 0.0427748 
2.655 -2973.13 7661.61 -10634.7 20.745 2.49401 0.0428211 
2.66 -2992.24 7658.34 -10650.6 20.6994 2.49295 0.0429094 
2.665 -2878.58 7780.85 -10659.4 20.7158 2.53283 0.0429672 
2.67 -2765.94 7909.12 -10675.1 20.7149 2.57458 0.0430578 
2.675 -2777.86 7901.84 -10679.7 20.6975 2.57221 0.0431523 
2.68 -2800.55 7841.63 -10642.2 20.7664 2.55262 0.0432345 
2.685 -2827.8 7752.52 -10580.3 20.8876 2.52361 0.0433196 
2.69 -2862.39 7663.47 -10525.9 20.9915 2.49462 0.0433803 
2.695 -2914.62 7562.24 -10476.9 21.082 2.46167 0.0434106 
2.7 -2882.48 7568.84 -10451.3 21.1551 2.46382 0.043395 
2.705 -2813.15 7632.31 -10445.5 21.2023 2.48448 0.0433624 
2.71 -2831.03 7608.79 -10439.8 21.2177 2.47682 0.0433158 
2.715 -2855.91 7588.5 -10444.4 21.2065 2.47022 0.0432594 
2.72 -2830.8 7628.27 -10459.1 21.1917 2.48316 0.0432374 
2.725 -2896.9 7582.33 -10479.2 21.1337 2.46821 0.0432263 
2.73 -2792.67 7711.21 -10503.9 21.1258 2.51016 0.0432074 
2.735 -2898.2 7604.5 -10502.7 21.0943 2.47542 0.0432215 
2.74 -2929.79 7540.76 -10470.6 21.1488 2.45468 0.0432035 
2.745 -2950.85 7473.88 -10424.7 21.2319 2.4329 0.0431196 
2.75 -2958.43 7457.98 -10416.4 21.244 2.42773 0.0430262 
2.755 -2946.27 7496.87 -10443.1 21.1946 2.44039 0.0429787 
2.76 -2902.96 7582.52 -10485.5 21.1233 2.46827 0.042935 
2.765 -2979.83 7553.18 -10533 21.0014 2.45872 0.0428701 
2.77 -2909.17 7660.39 -10569.6 20.9521 2.49362 0.0428118 
2.775 -2804.48 7761.27 -10565.8 20.9963 2.52646 0.0427768 
2.78 -2828.9 7691.56 -10520.5 21.0789 2.50376 0.0427481 
2.785 -2833.72 7650.46 -10484.2 21.1464 2.49038 0.0427549 
2.79 -2922.19 7548.66 -10470.8 21.1376 2.45724 0.042781 
2.795 -2905.5 7573.92 -10479.4 21.1249 2.46547 0.0427567 
2.8 -2843.52 7656.5 -10500 21.1051 2.49235 0.0427495 
2.805 -3001.7 7515.96 -10517.7 21.0168 2.4466 0.0427816 
2.81 -2977.33 7540.65 -10518 21.0295 2.45464 0.0428471 
2.815 -2991.81 7508.23 -10500 21.0672 2.44409 0.0428812 
2.82 -3084.74 7388.34 -10473.1 21.0938 2.40506 0.0429643 
2.825 -3056.07 7391.85 -10447.9 21.1564 2.4062 0.0430115 
2.83 -3061.01 7380.04 -10441 21.166 2.40236 0.0430524 
2.835 -3069.42 7388.94 -10458.4 21.1232 2.40525 0.0430652 
2.84 -2996.19 7485.13 -10481.3 21.1002 2.43656 0.0430534 
2.845 -3011.96 7518.39 -10530.4 20.9915 2.44739 0.0429735 
2.85 -2940.43 7640.48 -10580.9 20.9107 2.48714 0.0428465 
2.855 -2891.82 7723.42 -10615.2 20.8581 2.51413 0.0427032 
2.86 -2895.7 7767.19 -10662.9 20.7553 2.52838 0.0425488 
2.865 -2949.24 7731.67 -10680.9 20.6962 2.51682 0.0424564 
2.87 -2988.94 7675.64 -10664.6 20.7156 2.49858 0.0424486 
2.875 -2900.74 7707.46 -10608.2 20.8622 2.50894 0.0424537 
2.88 -2905.29 7643.72 -10549 20.9828 2.48819 0.0424813 
2.885 -3010.62 7510.91 -10521.5 21.0033 2.44496 0.0425356 
2.89 -3016.51 7504.47 -10521 21.0009 2.44286 0.0425911 
2.895 -3038.18 7476.59 -10514.8 21.005 2.43379 0.0426318 
2.9 -2975.07 7534.32 -10509.4 21.0371 2.45258 0.0426499 
2.905 -2940.47 7549.26 -10489.7 21.0909 2.45744 0.0426897 
2.91 -2914.57 7548.85 -10463.4 21.1548 2.45731 0.0427005 
2.915 -2886.91 7559.61 -10446.5 21.1975 2.46081 0.0427006 
2.92 -2813 7629.51 -10442.5 21.23 2.48356 0.0426751 
2.925 -2803.86 7638.42 -10442.3 21.235 2.48646 0.0426987 
2.93 -2802.11 7638.06 -10440.2 21.2415 2.48635 0.0427301 
2.935 -2854.87 7608.91 -10463.8 21.1733 2.47686 0.0426843 
2.94 -2865.49 7622.76 -10488.2 21.1218 2.48137 0.0426699 
2.945 -2883.43 7612.68 -10496.1 21.1029 2.47809 0.0426823 
2.95 -2915.77 7586.47 -10502.2 21.082 2.46956 0.0426528 
2.955 -2773.29 7699.9 -10473.2 21.1986 2.50648 0.0426288 
2.96 -2752.99 7708.26 -10461.2 21.2357 2.5092 0.0425747 
2.965 -2728.98 7716.46 -10445.4 21.2818 2.51187 0.0425402 
2.97 -2787.25 7638.47 -10425.7 21.307 2.48648 0.0425163 
2.975 -2748.5 7670.17 -10418.7 21.3401 2.4968 0.0424824 
2.98 -2713.91 7688.93 -10402.8 21.387 2.50291 0.0424834 
2.985 -2677.05 7712.7 -10389.8 21.426 2.51065 0.0424526 
2.99 -2618.33 7781.44 -10399.8 21.4226 2.53302 0.0424253 
2.995 -2684.14 7746.6 -10430.7 21.3333 2.52168 0.0423825 
3 -2813.01 7665.67 -10478.7 21.1874 2.49533 0.0423667 
3.005 -2716.55 7794.41 -10511 21.1536 2.53724 0.0423595 
3.01 -2686.5 7818.43 -10504.9 21.1732 2.54506 0.0423432 
3.015 -2698.17 7791.35 -10489.5 21.2009 2.53625 0.0423375 
3.02 -2722.8 7732.65 -10455.4 21.2656 2.51714 0.0423562 
3.025 -2675.43 7769.74 -10445.2 21.3052 2.52921 0.0423614 
3.03 -2696.6 7749.34 -10445.9 21.3023 2.52257 0.0423515 
3.035 -2714.81 7740.95 -10455.8 21.2815 2.51984 0.0423644 
3.04 -2859.93 7622.24 -10482.2 21.1792 2.4812 0.0423361 
3.045 -2873.59 7630.29 -10503.9 21.1309 2.48382 0.0423503 
3.05 -2883.43 7632.37 -10515.8 21.0998 2.4845 0.0423347 
3.055 -2869.4 7658.87 -10528.3 21.0735 2.49312 0.0423137 
3.06 -2893 7614.9 -10507.9 21.1067 2.47881 0.0423459 
3.065 -2904.08 7605.35 -10509.4 21.0971 2.4757 0.0423174 
3.07 -2868.32 7655.58 -10523.9 21.0769 2.49205 0.0422874 
3.075 -2928.75 7599.88 -10528.6 21.0447 2.47392 0.0422696 
3.08 -2902.69 7637.49 -10540.2 21.0253 2.48616 0.0422229 
3.085 -2882.91 7671.53 -10554.4 20.9971 2.49724 0.0422059 
3.09 -3015.24 7561.07 -10576.3 20.8999 2.46129 0.0422034 
3.095 -2984.85 7614.92 -10599.8 20.8578 2.47881 0.04216 
3.1 -2950.13 7651.32 -10601.5 20.8616 2.49066 0.0421611 
3.105 -2906.27 7681.94 -10588.2 20.9006 2.50063 0.0421517 
3.11 -2758.61 7819.74 -10578.4 20.9728 2.54549 0.0421166 
3.115 -2716.22 7847.22 -10563.4 21.0227 2.55443 0.0420937 
3.12 -2679.4 7885.02 -10564.4 21.0398 2.56674 0.0421019 
3.125 -2660.15 7910.37 -10570.5 21.0432 2.57499 0.0421234 
3.13 -2675.14 7854.28 -10529.4 21.1315 2.55673 0.0421621 
3.135 -2646.14 7825.84 -10472 21.2653 2.54747 0.0421901 
3.14 -2610.31 7820.6 -10430.9 21.3686 2.54577 0.0421962 
3.145 -2518.94 7897.86 -10416.8 21.4373 2.57092 0.0422026 
3.15 -2526.99 7892.42 -10419.4 21.4364 2.56915 0.0421889 
3.155 -2611.77 7802.65 -10414.4 21.4247 2.53993 0.0422222 
3.16 -2674.47 7710.78 -10385.3 21.4689 2.51002 0.0422577 
3.165 -2716.2 7650.65 -10366.9 21.4983 2.49044 0.0423276 
3.17 -2679.17 7694.15 -10373.3 21.5024 2.50461 0.0423481 
3.175 -2676.41 7705.65 -10382.1 21.4831 2.50835 0.042311 
3.18 -2637.41 7740.28 -10377.7 21.5016 2.51962 0.0423057 
3.185 -2759.7 7640.42 -10400.1 21.4049 2.48712 0.0422727 
3.19 -2835.76 7591.36 -10427.1 21.3161 2.47114 0.0422796 
3.195 -2818.69 7641.57 -10460.3 21.2445 2.48749 0.0422498 
3.2 -2814.78 7692.69 -10507.5 21.137 2.50413 0.0422293 
3.205 -2829.05 7735.91 -10565 21.0043 2.5182 0.0421967 
3.21 -2808.63 7782.92 -10591.6 20.9517 2.5335 0.0422243 
3.215 -2823.85 7774.71 -10598.6 20.9297 2.53083 0.042287 
3.22 -2814.86 7757.84 -10572.7 20.9832 2.52534 0.0423358 
3.225 -2848.3 7689.15 -10537.4 21.0414 2.50298 0.0423763 
3.23 -2844.7 7658.31 -10503 21.1092 2.49294 0.0424209 
3.235 -2760.58 7714.06 -10474.6 21.1932 2.51109 0.0424285 
3.24 -2763.92 7691.73 -10455.6 21.2304 2.50382 0.0424268 
3.245 -2669.95 7752.85 -10422.8 21.3299 2.52371 0.0424411 
3.25 -2611.63 7787.56 -10399.2 21.4011 2.53501 0.0424813 
3.255 -2594.38 7764.82 -10359.2 21.4968 2.52761 0.042558 
3.26 -2589.74 7750.1 -10339.8 21.5469 2.52282 0.0425993 
3.265 -2686.07 7664.93 -10351 21.4951 2.4951 0.0425859 
3.27 -2640.26 7711.76 -10352 21.5134 2.51034 0.042609 
3.275 -2676.93 7667.28 -10344.2 21.5196 2.49586 0.0426068 
3.28 -2711.08 7651.24 -10362.3 21.4705 2.49064 0.0425745 
3.285 -2757.54 7633.38 -10390.9 21.3922 2.48482 0.0425433 
3.29 -2814.82 7611.46 -10426.3 21.2939 2.47769 0.0425334 
3.295 -2826.93 7639.72 -10466.6 21.1979 2.48689 0.0425053 
3.3 -2834.68 7686.94 -10521.6 21.0721 2.50226 0.0425238 
3.305 -2876.75 7673.2 -10549.9 20.9932 2.49779 0.0425491 
3.31 -2976.08 7583.52 -10559.6 20.937 2.46859 0.0425884 
3.315 -2988.78 7585.04 -10573.8 20.8998 2.46909 0.0425826 
3.32 -2969.44 7590.98 -10560.4 20.9325 2.47102 0.0425746 
3.325 -2937.68 7624.61 -10562.3 20.9361 2.48197 0.0425406 
3.33 -2798.99 7759.89 -10558.9 20.9868 2.52601 0.0425045 
3.335 -2787.33 7794.44 -10581.8 20.9411 2.53725 0.0424321 
3.34 -2894.8 7701.73 -10596.5 20.8733 2.50707 0.0423663 
3.345 -2921.23 7674.32 -10595.6 20.8687 2.49815 0.042354 
3.35 -2926.68 7647.4 -10574.1 20.9127 2.48939 0.0423283 
3.355 -2853.87 7685.2 -10539.1 21.016 2.50169 0.0423459 
3.36 -2940.56 7577.18 -10517.7 21.0334 2.46653 0.0423478 
3.365 -2819.9 7678.47 -10498.4 21.1187 2.4995 0.0423223 
3.37 -2902.11 7565.65 -10467.8 21.1532 2.46278 0.0422607 
3.375 -2897.27 7546.42 -10443.7 21.2067 2.45652 0.0422174 
3.38 -2967.87 7475.72 -10443.6 21.1863 2.4335 0.0421574 
3.385 -3041.02 7462.17 -10503.2 21.0394 2.42909 0.0420384 
3.39 -3105.83 7460.37 -10566.2 20.8876 2.4285 0.0419367 
3.395 -3104.56 7498.95 -10603.5 20.8095 2.44106 0.0417814 
3.4 -3043.83 7571.85 -10615.7 20.8033 2.46479 0.041653 
3.405 -2992.51 7597.45 -10590 20.8664 2.47313 0.0415219 
3.41 -2952.67 7591.01 -10543.7 20.9711 2.47103 0.0413929 
3.415 -2832.23 7682.08 -10514.3 21.074 2.50068 0.041263 
3.42 -2831.92 7683.95 -10515.9 21.07 2.50128 0.0410741 
3.425 -2837.07 7698.57 -10535.6 21.0318 2.50605 0.0409579 
3.43 -2807.1 7740.07 -10547.2 21.0229 2.51956 0.0408557 
3.435 -2765.09 7809.32 -10574.4 20.982 2.5421 0.0407597 
3.44 -2788.38 7780.17 -10568.5 20.9897 2.53261 0.0407357 
3.445 -2807.41 7749.97 -10557.4 21.005 2.52278 0.0407879 
3.45 -2819.52 7749.01 -10568.5 20.9717 2.52246 0.0407855 
3.455 -2833.4 7762.24 -10595.6 20.9035 2.52677 0.0408206 
3.46 -2810.6 7838.07 -10648.7 20.799 2.55146 0.0408424 
3.465 -2878.3 7831.81 -10710.1 20.6452 2.54942 0.0408049 
3.47 -2880.47 7865.27 -10745.7 20.5699 2.56031 0.0407964 
3.475 -2909.55 7828.35 -10737.9 20.5746 2.54829 0.040847 
3.48 -2869.79 7841.54 -10711.3 20.6456 2.55258 0.0408468 
3.485 -2871.85 7799.31 -10671.2 20.728 2.53884 0.0408303 
3.49 -2865.13 7773 -10638.1 20.8014 2.53027 0.0407917 
3.495 -2866.63 7737.13 -10603.8 20.8779 2.5186 0.0407656 
3.5 -2838.23 7753.66 -10591.9 20.9211 2.52398 0.0407644 
3.505 -2901.6 7664.89 -10566.5 20.9604 2.49508 0.0408037 
3.51 -2856.83 7689.26 -10546.1 21.0241 2.50302 0.0408326 
3.515 -2971.81 7538.78 -10510.6 21.0588 2.45403 0.0408833 
3.52 -2904.31 7564.36 -10468.7 21.1695 2.46236 0.0409327 
3.525 -2891.58 7553.92 -10445.5 21.2202 2.45896 0.0409416 
3.53 -2787.55 7635.63 -10423.2 21.2986 2.48556 0.0409721 
3.535 -2838.91 7576.79 -10415.7 21.2898 2.4664 0.0410064 
3.54 -2815.4 7615.5 -10430.9 21.2585 2.479 0.0409972 
3.545 -2739.98 7712 -10452 21.2372 2.51042 0.0409717 
3.55 -2723.63 7777.73 -10501.4 21.14 2.53181 0.0409266 
3.555 -2694.22 7870.43 -10564.7 21.0163 2.56199 0.040906 
3.56 -2833.62 7802.92 -10636.5 20.811 2.54001 0.0408696 
3.565 -2750.63 7930.25 -10680.9 20.7387 2.58146 0.0408806 
3.57 -2870.64 7806.87 -10677.5 20.7003 2.5413 0.0409481 
3.575 -2876.71 7782.83 -10659.5 20.731 2.53347 0.0409683 
3.58 -2867.76 7761.18 -10628.9 20.7922 2.52643 0.0409825 
3.585 -2875.44 7705.16 -10580.6 20.8864 2.50819 0.0410304 
3.59 -2823.22 7709.76 -10533 21.0024 2.50969 0.0410644 
3.595 -2908.29 7604.5 -10512.8 21.0159 2.47542 0.0410825 
3.6 -2926.05 7598.61 -10524.7 20.989 2.4735 0.0411144 
3.605 -2872.25 7662.47 -10534.7 20.9933 2.49429 0.0411268 
3.61 -2895.23 7643.94 -10539.2 20.9811 2.48826 0.0411636 
3.615 -2929.23 7619.13 -10548.4 20.9542 2.48019 0.0411834 
3.62 -2869.97 7698.42 -10568.4 20.9378 2.506 0.0412166 
3.625 -2779.86 7811.1 -10591 20.9197 2.54267 0.0412267 
3.63 -2751.36 7814.04 -10565.4 20.9791 2.54363 0.0412889 
3.635 -2758.26 7764.05 -10522.3 21.0618 2.52736 0.0413454 
3.64 -2650.02 7804.33 -10454.4 21.2403 2.54047 0.0414107 
3.645 -2719.63 7691.36 -10411 21.3092 2.5037 0.0414472 
3.65 -2601.9 7774.69 -10376.6 21.4258 2.53082 0.0414835 
3.655 -2626.5 7717.34 -10343.8 21.4861 2.51216 0.0415091 
3.66 -2623.88 7700.35 -10324.2 21.5281 2.50663 0.041494 
3.665 -2615.2 7714.33 -10329.5 21.5223 2.51117 0.0414917 
3.67 -2459.55 7912.12 -10371.7 21.488 2.57556 0.0414261 
3.675 -2535.39 7873.36 -10408.8 21.384 2.56294 0.0413505 
3.68 -2597.3 7854.24 -10451.5 21.2736 2.55672 0.0413163 
3.685 -2608.26 7884.64 -10492.9 21.1846 2.56661 0.041276 
3.69 -2635.37 7886.72 -10522.1 21.1152 2.56729 0.0411874 
3.695 -2634.88 7881.85 -10516.7 21.1265 2.56571 0.041086 
3.7 -2572.97 7899.95 -10472.9 21.2397 2.5716 0.0410274 
3.705 -2580.71 7844.25 -10425 21.3389 2.55347 0.0409889 
3.71 -2565 7854.95 -10419.9 21.3572 2.55695 0.0409429 
3.715 -2629.24 7816.21 -10445.5 21.2835 2.54434 0.0408852 
3.72 -2668.52 7799.36 -10467.9 21.2243 2.53886 0.0408643 
3.725 -2592.62 7900.17 -10492.8 21.1993 2.57167 0.0408174 
3.73 -2612.6 7878 -10490.6 21.1971 2.56445 0.0408204 
3.735 -2668.45 7803.22 -10471.7 21.2142 2.54011 0.04084 
3.74 -2683.6 7761 -10444.6 21.2619 2.52637 0.0408207 
3.745 -2594.46 7841.97 -10436.4 21.3063 2.55272 0.0408028 
3.75 -2582.42 7851.52 -10433.9 21.3138 2.55583 0.0407565 
3.755 -2642.97 7789.83 -10432.8 21.2957 2.53575 0.0407384 
3.76 -2684.79 7761.02 -10445.8 21.2573 2.52637 0.0407195 
3.765 -2761.64 7698.66 -10460.3 21.2013 2.50607 0.0407113 
3.77 -2754.67 7713.48 -10468.1 21.1877 2.5109 0.0407332 
3.775 -2812.07 7660.24 -10472.3 21.1565 2.49357 0.0407768 
3.78 -2863.91 7603.6 -10467.5 21.1436 2.47513 0.0407899 
3.785 -2891.52 7594.3 -10485.8 21.0892 2.4721 0.040771 
3.79 -2806.82 7725.4 -10532.2 21.014 2.51478 0.0406738 
3.795 -2826.72 7746.99 -10573.7 20.9119 2.52181 0.0405947 
3.8 -2897.74 7733.33 -10631.1 20.7598 2.51736 0.0405208 
3.805 -2946.24 7734.83 -10681.1 20.6325 2.51785 0.0404918 
3.81 -2878.52 7843.09 -10721.6 20.5735 2.55309 0.0405058 
3.815 -2940.65 7786.42 -10727.1 20.5442 2.53464 0.040546 
3.82 -2944.17 7752.35 -10696.5 20.6099 2.52355 0.0405476 
3.825 -2906.06 7723.89 -10630 20.7655 2.51429 0.0405482 
3.83 -2941.89 7607.14 -10549 20.92 2.47628 0.0405788 
3.835 -3023.01 7466.33 -10489.3 21.0148 2.43045 0.0405765 
3.84 -2962.83 7532.85 -10495.7 21.0265 2.4521 0.0405437 
3.845 -3069.74 7481.65 -10551.4 20.8781 2.43543 0.0404801 
3.85 -3036.41 7594.06 -10630.5 20.7273 2.47202 0.0403859 
3.855 -3094.59 7601.14 -10695.7 20.5696 2.47433 0.0403452 
3.86 -3084.22 7670.04 -10754.3 20.449 2.49676 0.0403171 
3.865 -3204.05 7605.52 -10809.6 20.2856 2.47575 0.0402715 
3.87 -3185.02 7649.04 -10834.1 20.2349 2.48992 0.040247 
3.875 -3183.59 7654.34 -10837.9 20.2218 2.49165 0.0402648 
3.88 -3256.52 7558.78 -10815.3 20.2397 2.46054 0.0402981 
3.885 -3217.3 7582.91 -10800.2 20.281 2.4684 0.0403102 
3.89 -3233.83 7556.08 -10789.9 20.2924 2.45966 0.040336 
3.895 -3161.15 7614.23 -10775.4 20.3468 2.47859 0.0403519 
3.9 -3152.44 7606.39 -10758.8 20.3851 2.47604 0.0403816 
3.905 -3134.96 7604.8 -10739.8 20.433 2.47552 0.040461 
3.91 -3216.94 7516.89 -10733.8 20.4167 2.44691 0.0405271 
3.915 -3153.53 7579.85 -10733.4 20.4393 2.4674 0.0406324 
3.92 -3129.12 7618.72 -10747.8 20.4156 2.48005 0.0407212 
3.925 -3061.4 7701.43 -10762.8 20.4041 2.50698 0.040748 
3.93 -3104.48 7680.07 -10784.5 20.3378 2.50002 0.040728 
3.935 -3163.29 7653.09 -10816.4 20.2489 2.49124 0.0407059 
3.94 -3111.2 7721.03 -10832.2 20.2323 2.51336 0.0406731 
3.945 -3109.58 7726.2 -10835.8 20.2264 2.51504 0.0406639 
3.95 -3130.12 7701.95 -10832.1 20.2279 2.50714 0.0406849 
3.955 -3199.71 7629.18 -10828.9 20.2125 2.48346 0.0406922 
3.96 -3205.5 7635.25 -10840.8 20.1891 2.48543 0.0406687 
3.965 -3045.58 7806.82 -10852.4 20.2269 2.54128 0.0406621 
3.97 -3090.41 7761.67 -10852.1 20.2149 2.52659 0.0407032 
3.975 -3023.31 7789.49 -10812.8 20.3209 2.53564 0.0407632 
3.98 -3052.45 7686.69 -10739.1 20.4643 2.50218 0.0408709 
3.985 -2990.67 7686.1 -10676.8 20.618 2.50199 0.0409731 
3.99 -2891.63 7755.49 -10647.1 20.717 2.52457 0.0410574 
3.995 -2978.7 7664.1 -10642.8 20.7016 2.49482 0.041156 
4 -2965.52 7706.97 -10672.5 20.6516 2.50878 0.041196 
4.005 -2981.07 7723.63 -10704.7 20.5802 2.5142 0.0411997 
4.01 -2991.36 7735.64 -10727 20.5274 2.51811 0.041175 
4.015 -2958.17 7795.1 -10753.3 20.4773 2.53747 0.0411501 
4.02 -2906.13 7858.34 -10764.5 20.4681 2.55805 0.0411575 
4.025 -2956.93 7824.34 -10781.3 20.4126 2.54699 0.0411759 
4.03 -3015.14 7785.37 -10800.5 20.3498 2.5343 0.0412353 
4.035 -2958.06 7868.13 -10826.2 20.317 2.56124 0.0413299 
4.04 -2933.68 7911.03 -10844.7 20.2904 2.57521 0.04144 
4.045 -2998.89 7868.67 -10867.6 20.2208 2.56141 0.0415033 
4.05 -3052.57 7840.37 -10892.9 20.1467 2.5522 0.0415095 
4.055 -3023.87 7833.14 -10857 20.2316 2.54985 0.0415414 
4.06 -3086.91 7713.17 -10800.1 20.3294 2.5108 0.0416095 
4.065 -3224.07 7544.54 -10768.6 20.3477 2.45591 0.041654 
4.07 -3130.34 7635.45 -10765.8 20.3809 2.4855 0.0416958 
4.075 -3144.68 7643.34 -10788 20.32 2.48807 0.0416752 
4.08 -3166.8 7653.88 -10820.7 20.236 2.4915 0.041646 
4.085 -3204.96 7636.18 -10841.1 20.1761 2.48574 0.041695 
4.09 -3130.27 7723.52 -10853.8 20.1694 2.51417 0.0417559 
4.095 -3150.65 7709.17 -10859.8 20.142 2.50949 0.0417559 
4.1 -3179.24 7686.7 -10865.9 20.1165 2.50218 0.0417891 
4.105 -3203.68 7676.68 -10880.4 20.0788 2.49892 0.0418447 
4.11 -3238.92 7652.4 -10891.3 20.0462 2.49101 0.0418965 
4.115 -3168.55 7736.69 -10905.2 20.0467 2.51845 0.0419602 
4.12 -3150.76 7733.62 -10884.4 20.104 2.51745 0.0421293 
4.125 -3220.63 7616.33 -10837 20.1833 2.47927 0.0422751 
4.13 -3308.49 7465.45 -10773.9 20.2874 2.43016 0.0424509 
4.135 -3167.81 7565.55 -10733.4 20.427 2.46274 0.0426282 
4.14 -3051.48 7625.75 -10677.2 20.5936 2.48234 0.0428128 
4.145 -3030.94 7623.51 -10654.5 20.6586 2.48161 0.0429325 
4.15 -3027.98 7598.33 -10626.3 20.7298 2.47341 0.0430846 
4.155 -2957.87 7637.11 -10595 20.831 2.48604 0.0432411 
4.16 -2957.29 7613.64 -10570.9 20.8963 2.4784 0.0434344 
4.165 -2838.98 7691.3 -10530.3 21.0345 2.50368 0.0435598 
4.17 -2791.27 7682.1 -10473.4 21.1784 2.50068 0.0436637 
4.175 -2765.57 7670.05 -10435.6 21.2684 2.49676 0.0437908 
4.18 -2654.86 7762.45 -10417.3 21.3466 2.52684 0.0439304 
4.185 -2620.08 7800.68 -10420.8 21.3486 2.53928 0.044049 
4.19 -2594.29 7834.15 -10428.4 21.3408 2.55018 0.0441206 
4.195 -2628.11 7826.08 -10454.2 21.2761 2.54755 0.0441652 
4.2 -2723.48 7764.52 -10488 21.1701 2.52751 0.0441986 
4.205 -2714.19 7817.4 -10531.6 21.0799 2.54473 0.0442245 
4.21 -2754.39 7804.55 -10558.9 21.0079 2.54054 0.0442378 
4.215 -2910.45 7673.9 -10584.4 20.902 2.49802 0.0442688 
4.22 -2924.37 7687.48 -10611.9 20.8409 2.50244 0.0442634 
4.225 -2890.22 7733.7 -10623.9 20.8296 2.51748 0.0443053 
4.23 -2986.24 7633.63 -10619.9 20.8062 2.48491 0.0443669 
4.235 -2961.16 7616.38 -10577.5 20.9064 2.47929 0.0444436 
4.24 -2949.14 7589.29 -10538.4 20.9918 2.47047 0.0445308 
4.245 -2948.07 7546.87 -10494.9 21.085 2.45666 0.0446122 
4.25 -3033.07 7427.24 -10460.3 21.1316 2.41772 0.0446855 
4.255 -3066.58 7363.65 -10430.2 21.1842 2.39702 0.0447499 
4.26 -3005.27 7408.29 -10413.6 21.2374 2.41155 0.0448136 
4.265 -2997.48 7434.07 -10431.6 21.199 2.41994 0.0448783 
4.27 -2936.57 7546.78 -10483.4 21.1099 2.45664 0.0449185 
4.275 -2905.36 7625.12 -10530.5 21.0203 2.48214 0.0449282 
4.28 -2839.67 7714.15 -10553.8 20.9951 2.51112 0.0449273 
4.285 -2949.51 7589.08 -10538.6 20.9908 2.4704 0.0449448 
4.29 -2935.93 7576.35 -10512.3 21.051 2.46626 0.0449326 
4.295 -2908.42 7585.96 -10494.4 21.0977 2.46939 0.0448751 
4.3 -2840.06 7633.42 -10473.5 21.1631 2.48484 0.0447971 
4.305 -2826.6 7638.12 -10464.7 21.182 2.48637 0.0447032 
4.31 -2829.11 7629.44 -10458.5 21.1921 2.48354 0.0445828 
4.315 -2854.42 7610.14 -10464.6 21.1689 2.47726 0.0445114 
4.32 -2892 7594.31 -10486.3 21.104 2.4721 0.0444083 
4.325 -2903.18 7587.51 -10490.7 21.0845 2.46989 0.0443191 
4.33 -2877.18 7608.66 -10485.8 21.0947 2.47678 0.0442114 
4.335 -2926.55 7543.6 -10470.2 21.1034 2.4556 0.0441417 
4.34 -2967.64 7487.25 -10454.9 21.1168 2.43726 0.0441221 
4.345 -2943.99 7495.22 -10439.2 21.1551 2.43985 0.0440785 
4.35 -2783.82 7657.27 -10441.1 21.2074 2.4926 0.0440603 
4.355 -2804.75 7632.91 -10437.7 21.2045 2.48467 0.0440057 
4.36 -2822.07 7623.15 -10445.2 21.1792 2.48149 0.0439804 
4.365 -2681.37 7767.03 -10448.4 21.2175 2.52833 0.0439279 
4.37 -2725.75 7729.86 -10455.6 21.1795 2.51623 0.0438637 
4.375 -2810.93 7677.13 -10488.1 21.0746 2.49907 0.0438143 
4.38 -2885.18 7658.74 -10543.9 20.9278 2.49308 0.0438033 
4.385 -2892.31 7718.58 -10610.9 20.7887 2.51256 0.0438106 
4.39 -2839.77 7840.19 -10680 20.6615 2.55214 0.0437491 
4.395 -2879.66 7839.4 -10719.1 20.5613 2.55189 0.0437036 
4.4 -2883.94 7862.96 -10746.9 20.5004 2.55956 0.0436473 
4.405 -2933.44 7827.02 -10760.5 20.4565 2.54786 0.0436007 
4.41 -2937.2 7815.24 -10752.4 20.4738 2.54402 0.0435084 
4.415 -3008.99 7743.38 -10752.4 20.4501 2.52063 0.0434248 
4.42 -3036.42 7700.83 -10737.2 20.4753 2.50678 0.043394 
4.425 -3107.99 7599.06 -10707 20.5198 2.47365 0.0433936 
4.43 -3051.98 7620.63 -10672.6 20.6161 2.48067 0.0433728 
4.435 -3040.38 7592.29 -10632.7 20.7055 2.47145 0.0433642 
4.44 -2971.74 7637.18 -10608.9 20.776 2.48606 0.0433091 
4.445 -2949.67 7630.75 -10580.4 20.8399 2.48397 0.0433006 
4.45 -2882.84 7646.79 -10529.6 20.9661 2.48919 0.0433082 
4.455 -2739.71 7769.49 -10509.2 21.0563 2.52913 0.0433267 
4.46 -2614.84 7900.98 -10515.8 21.0888 2.57193 0.0434124 
4.465 -2663.5 7853.85 -10517.4 21.071 2.55659 0.0435436 
4.47 -2686.05 7831.41 -10517.5 21.0664 2.54929 0.0437192 
4.475 -2628.31 7910.52 -10538.8 21.0465 2.57504 0.0438676 
4.48 -2612.46 7949.54 -10562 21.0094 2.58774 0.0439924 
4.485 -2587.85 7978.79 -10566.6 21.0111 2.59726 0.0441624 
4.49 -2534.91 7998.51 -10533.4 21.1043 2.60368 0.0444295 
4.495 -2619.73 7877.14 -10496.9 21.1525 2.56417 0.0447176 
4.5 -2532.73 7924.2 -10456.9 21.2705 2.57949 0.0449843 
4.505 -2578.37 7845.51 -10423.9 21.3257 2.55388 0.0452827 
4.51 -2518.5 7863.99 -10382.5 21.4354 2.55989 0.0455784 
4.515 -2546.74 7812.03 -10358.8 21.4757 2.54298 0.0458168 
4.52 -2557.43 7794.49 -10351.9 21.4874 2.53727 0.0460765 
4.525 -2558.5 7804.94 -10363.4 21.4662 2.54067 0.0462944 
4.53 -2607.12 7766.32 -10373.4 21.4313 2.5281 0.0464888 
4.535 -2614.38 7757.24 -10371.6 21.433 2.52514 0.0466568 
4.54 -2707.54 7677.32 -10384.9 21.371 2.49913 0.0467664 
4.545 -2662.73 7754.3 -10417 21.3154 2.52419 0.0468547 
4.55 -2576.94 7857.75 -10434.7 21.3108 2.55786 0.0470064 
4.555 -2587.32 7842.82 -10430.1 21.3157 2.553 0.0471202 
4.56 -2659.09 7750.46 -10409.5 21.3355 2.52294 0.0472654 
4.565 -2656.85 7729.25 -10386.1 21.387 2.51603 0.0473769 
4.57 -2621.85 7743.9 -10365.8 21.443 2.5208 0.0474656 
4.575 -2658.7 7694.63 -10353.3 21.455 2.50476 0.0475034 
4.58 -2778.81 7588.18 -10367 21.3842 2.47011 0.0475743 
4.585 -2644.36 7754.92 -10399.3 21.3648 2.52439 0.047603 
4.59 -2702.25 7738.98 -10441.2 21.2554 2.5192 0.0475904 
4.595 -2715.63 7778.08 -10493.7 21.1361 2.53193 0.0475799 
4.6 -2843.3 7664.96 -10508.3 21.0567 2.4951 0.0475829 
4.605 -2811.36 7715.68 -10527 21.021 2.51161 0.0475956 
4.61 -2823.92 7701.76 -10525.7 21.0115 2.50708 0.0476204 
4.615 -2812.76 7704.44 -10517.2 21.0297 2.50796 0.0476814 
4.62 -2736.59 7756.88 -10493.5 21.1025 2.52503 0.0476999 
4.625 -2689.32 7789.04 -10478.4 21.1465 2.53549 0.0476956 
4.63 -2700.2 7789.95 -10490.2 21.1147 2.53579 0.0476892 
4.635 -2726.67 7774.88 -10501.5 21.0836 2.53089 0.0477099 
4.64 -2610.61 7886.07 -10496.7 21.1408 2.56708 0.0477182 
4.645 -2529.27 7943.02 -10472.3 21.2286 2.58562 0.0477267 
4.65 -2591.58 7824.13 -10415.7 21.3344 2.54692 0.0477518 
4.655 -2637.21 7716.8 -10354 21.4561 2.51198 0.0478009 
4.66 -2595.78 7716.6 -10312.4 21.5661 2.51191 0.0478461 
4.665 -2631.84 7664.77 -10296.6 21.5949 2.49504 0.047883 
4.67 -2632.09 7685.32 -10317.4 21.5622 2.50173 0.0479117 
4.675 -2501.09 7821.01 -10322.1 21.6075 2.5459 0.0479871 
4.68 -2437.14 7900.67 -10337.8 21.6024 2.57183 0.0480725 
4.685 -2390.21 7950.03 -10340.2 21.6168 2.5879 0.0481153 
4.69 -2398.13 7942.24 -10340.4 21.6153 2.58537 0.0481625 
4.695 -2459.79 7866.13 -10325.9 21.6256 2.56059 0.0482312 
4.7 -2462.14 7843.92 -10306.1 21.6683 2.55336 0.0482785 
4.705 -2408.14 7838.39 -10246.5 21.8119 2.55156 0.0482781 
4.71 -2427.09 7781.29 -10208.4 21.8802 2.53297 0.0482526 
4.715 -2400.43 7810.85 -10211.3 21.8783 2.54259 0.0482024 
4.72 -2426.12 7808.73 -10234.9 21.8158 2.5419 0.0481579 
4.725 -2402.9 7859.65 -10262.5 21.7618 2.55848 0.0481041 
4.73 -2371.11 7912.14 -10283.3 21.7231 2.57557 0.0480405 
4.735 -2366.95 7938.48 -10305.4 21.6709 2.58414 0.0479678 
4.74 -2344.69 7992.44 -10337.1 21.6061 2.60171 0.0478653 
4.745 -2366.05 8020.19 -10386.2 21.4909 2.61074 0.047693 
4.75 -2352.25 8059.97 -10412.2 21.4399 2.62369 0.0475738 
4.755 -2374.76 8032.25 -10407 21.4409 2.61467 0.0475174 
4.76 -2403.7 7988.6 -10392.3 21.4594 2.60046 0.0474477 
4.765 -2434.57 7950.23 -10384.8 21.4615 2.58797 0.0473442 
4.77 -2437.61 7912.69 -10350.3 21.5347 2.57575 0.047264 
4.775 -2484.29 7864.14 -10348.4 21.5258 2.55994 0.0471851 
4.78 -2598.01 7775.07 -10373.1 21.4394 2.53095 0.0471299 
4.785 -2629.73 7776.85 -10406.6 21.3614 2.53153 0.0470732 
4.79 -2555.09 7888.34 -10443.4 21.3109 2.56782 0.0470078 
4.795 -2505.98 7937.94 -10443.9 21.3248 2.58397 0.0470124 
4.8 -2550.65 7883.95 -10434.6 21.3244 2.56639 0.04704 
4.805 -2606.61 7828.96 -10435.6 21.3002 2.54849 0.0470045 
4.81 -2618.04 7827.81 -10445.8 21.2746 2.54811 0.0469368 
4.815 -2690.16 7759.14 -10449.3 21.2393 2.52576 0.0468691 
4.82 -2762.09 7704.27 -10466.4 21.1758 2.5079 0.0467988 
4.825 -2684.93 7798.53 -10483.5 21.1645 2.53858 0.0467251 
4.83 -2460.1 8047.93 -10508 21.1909 2.61977 0.0466246 
4.835 -2514.61 7998.14 -10512.8 21.1656 2.60356 0.0465725 
4.84 -2492.8 7987.16 -10480 21.2496 2.59999 0.0466205 
4.845 -2595.13 7860.74 -10455.9 21.2707 2.55883 0.0466708 
4.85 -2579.35 7859.18 -10438.5 21.3187 2.55833 0.0467473 
4.855 -2484.39 7928.24 -10412.6 21.4097 2.58081 0.0468298 
4.86 -2469.75 7926.33 -10396.1 21.4515 2.58019 0.0469104 
4.865 -2446.11 7943.01 -10389.1 21.4766 2.58562 0.046954 
4.87 -2450.02 7928.69 -10378.7 21.4986 2.58095 0.0469849 
4.875 -2519.65 7844.16 -10363.8 21.504 2.55344 0.0470159 
4.88 -2676.06 7665.4 -10341.5 21.4951 2.49525 0.0470613 
4.885 -2696.13 7642.81 -10338.9 21.4934 2.48789 0.0470586 
4.89 -2698.35 7674.87 -10373.2 21.4199 2.49833 0.0469815 
4.895 -2614.87 7823.92 -10438.8 21.3102 2.54685 0.046861 
4.9 -2664.68 7822.63 -10487.3 21.1871 2.54643 0.04677 
4.905 -2717.11 7798.84 -10516 21.1061 2.53869 0.0467506 
4.91 -2755.7 7774.99 -10530.7 21.0602 2.53092 0.0467556 
4.915 -2807.49 7737.06 -10544.6 21.0138 2.51858 0.0467683 
4.92 -2828.76 7694.54 -10523.3 21.0526 2.50473 0.0467834 
4.925 -2842.52 7638.6 -10481.1 21.1381 2.48652 0.0467954 
4.93 -2913.78 7524.95 -10438.7 21.2046 2.44953 0.0467889 
4.935 -2913.9 7492.28 -10406.2 21.2735 2.43889 0.0467545 
4.94 -2833.76 7553.74 -10387.5 21.3424 2.4589 0.046705 
4.945 -2822.68 7571.58 -10394.3 21.3337 2.46471 0.0466511 
4.95 -2796.55 7627.92 -10424.5 21.2797 2.48305 0.0465433 
4.955 -2773.71 7665.47 -10439.2 21.2571 2.49527 0.046499 
4.96 -2763.76 7673.37 -10437.1 21.2633 2.49784 0.046439 
4.965 -2784.97 7659.17 -10444.1 21.2405 2.49322 0.0463882 
4.97 -2736.26 7717.95 -10454.2 21.2367 2.51235 0.0463187 
4.975 -2844.15 7612.71 -10456.9 21.1927 2.47809 0.046276 
4.98 -2868.73 7603.27 -10472 21.1482 2.47502 0.0462148 
4.985 -2861.74 7623.33 -10485.1 21.1177 2.48155 0.0461408 
4.99 -2807.95 7704.83 -10512.8 21.0748 2.50808 0.0460265 
4.995 -2697.32 7818.83 -10516.2 21.1014 2.54519 0.0458577 
5 -2772.46 7734.54 -10507 21.085 2.51775 0.0456745 
